# ACE/gr parameter file
#
#
@page 5
@page inout 5
@link page off
@default linestyle 1
@default linewidth 1
@default color 1
@default char size 1.000000
@default font 4
@default font source 0
@default symbol size 1.000000
@with string
@    string on
@    string loctype view
@    string 0.0645161290323, 0.265
@    string linewidth 1
@    string color 1
@    string rot 0
@    string font 0
@    string just 0
@    string char size 1.800000
@string def "n=1"
@with string
@    string on
@    string loctype view
@    string 0.0617110799439, 0.486666666667
@    string linewidth 1
@    string color 1
@    string rot 0
@    string font 0
@    string just 0
@    string char size 1.800000
@string def "n=2"
@with string
@    string on
@    string loctype view
@    string 0.0631136044881, 0.706666666667
@    string linewidth 1
@    string color 1
@    string rot 0
@    string font 0
@    string just 0
@    string char size 1.800000
@string def "n=3"
@with string
@    string on
@    string loctype view
@    string 0.792426367461, 0.256666666667
@    string linewidth 1
@    string color 1
@    string rot 0
@    string font 0
@    string just 0
@    string char size 1.800000
@string def "sin(\8p\0\2z/l\sw\N\0)"
@with string
@    string on
@    string loctype view
@    string 0.796633941094, 0.478333333333
@    string linewidth 1
@    string color 1
@    string rot 0
@    string font 0
@    string just 0
@    string char size 1.800000
@string def "sin(2\8p\2z/l\sw\N\0)"
@with string
@    string on
@    string loctype view
@    string 0.798036465638, 0.705
@    string linewidth 1
@    string color 1
@    string rot 0
@    string font 0
@    string just 0
@    string char size 1.800000
@string def "sin(3\8p\2z/l\sw\N\0)"
@with g0
@g0 on
@g0 label off
@g0 hidden false
@g0 type xy
@g0 autoscale type AUTO
@g0 fixedpoint off
@g0 fixedpoint type 0
@g0 fixedpoint xy 0.000000, 0.000000
@g0 fixedpoint format general general
@g0 fixedpoint prec 6, 6
@    world xmin 0
@    world xmax 100
@    world ymin -5000
@    world ymax 80000
@    view xmin 0.150000
@    view xmax 0.780000
@    view ymin 0.220000
@    view ymax 0.850000
@    title ""
@    title font 4
@    title size 1.500000
@    title color 1
@    title linewidth 1
@    subtitle ""
@    subtitle font 4
@    subtitle size 1.000000
@    subtitle color 1
@    subtitle linewidth 1
@    s0 type xy
@    s0 symbol 0
@    s0 symbol size 1.000000
@    s0 symbol fill 1
@    s0 symbol color 1
@    s0 symbol linewidth 1
@    s0 symbol linestyle 1
@    s0 symbol center false
@    s0 symbol char 0
@    s0 skip 0
@    s0 linestyle 1
@    s0 linewidth 2
@    s0 color 1
@    s0 fill 0
@    s0 fill with color
@    s0 fill color 1
@    s0 fill pattern 0
@    s0 errorbar type BOTH
@    s0 errorbar length 1.000000
@    s0 errorbar linewidth 1
@    s0 errorbar linestyle 1
@    s0 errorbar riser on
@    s0 errorbar riser linewidth 1
@    s0 errorbar riser linestyle 1
@    s0 xyz 0.000000, 0.000000
@    s0 comment "wf_e1.r"
@    s1 type xy
@    s1 symbol 0
@    s1 symbol size 1.000000
@    s1 symbol fill 1
@    s1 symbol color 1
@    s1 symbol linewidth 1
@    s1 symbol linestyle 1
@    s1 symbol center false
@    s1 symbol char 0
@    s1 skip 0
@    s1 linestyle 1
@    s1 linewidth 2
@    s1 color 1
@    s1 fill 0
@    s1 fill with color
@    s1 fill color 1
@    s1 fill pattern 0
@    s1 errorbar type BOTH
@    s1 errorbar length 1.000000
@    s1 errorbar linewidth 1
@    s1 errorbar linestyle 1
@    s1 errorbar riser on
@    s1 errorbar riser linewidth 1
@    s1 errorbar riser linestyle 1
@    s1 xyz 0.000000, 0.000000
@    s1 comment "wf_e2.r"
@    s2 type xy
@    s2 symbol 0
@    s2 symbol size 1.000000
@    s2 symbol fill 1
@    s2 symbol color 1
@    s2 symbol linewidth 1
@    s2 symbol linestyle 1
@    s2 symbol center false
@    s2 symbol char 0
@    s2 skip 0
@    s2 linestyle 1
@    s2 linewidth 2
@    s2 color 1
@    s2 fill 0
@    s2 fill with color
@    s2 fill color 1
@    s2 fill pattern 0
@    s2 errorbar type BOTH
@    s2 errorbar length 1.000000
@    s2 errorbar linewidth 1
@    s2 errorbar linestyle 1
@    s2 errorbar riser on
@    s2 errorbar riser linewidth 1
@    s2 errorbar riser linestyle 1
@    s2 xyz 0.000000, 0.000000
@    s2 comment "wf_e3.r"
@    xaxis  tick on
@    xaxis  tick major 20
@    xaxis  tick minor 10
@    xaxis  tick offsetx 0.000000
@    xaxis  tick offsety 0.000000
@    xaxis  label "\2z\0-axis (\cE\C)"
@    xaxis  label layout para
@    xaxis  label place auto
@    xaxis  label char size 2.000000
@    xaxis  label font 0
@    xaxis  label color 1
@    xaxis  label linewidth 1
@    xaxis  ticklabel on
@    xaxis  ticklabel type auto
@    xaxis  ticklabel prec 0
@    xaxis  ticklabel format decimal
@    xaxis  ticklabel append ""
@    xaxis  ticklabel prepend ""
@    xaxis  ticklabel layout horizontal
@    xaxis  ticklabel skip 0
@    xaxis  ticklabel stagger 0
@    xaxis  ticklabel op bottom
@    xaxis  ticklabel sign normal
@    xaxis  ticklabel start type spec
@    xaxis  ticklabel start 0.000000
@    xaxis  ticklabel stop type auto
@    xaxis  ticklabel stop 0.000000
@    xaxis  ticklabel char size 2.000000
@    xaxis  ticklabel font 0
@    xaxis  ticklabel color 1
@    xaxis  ticklabel linewidth 1
@    xaxis  tick major on
@    xaxis  tick minor on
@    xaxis  tick default 6
@    xaxis  tick in
@    xaxis  tick major color 1
@    xaxis  tick major linewidth 1
@    xaxis  tick major linestyle 1
@    xaxis  tick minor color 1
@    xaxis  tick minor linewidth 1
@    xaxis  tick minor linestyle 1
@    xaxis  tick log off
@    xaxis  tick size 1.000000
@    xaxis  tick minor size 0.500000
@    xaxis  bar off
@    xaxis  bar color 1
@    xaxis  bar linestyle 1
@    xaxis  bar linewidth 1
@    xaxis  tick major grid off
@    xaxis  tick minor grid off
@    xaxis  tick op both
@    xaxis  tick type auto
@    xaxis  tick spec 0
@    yaxis  tick on
@    yaxis  tick major 10000
@    yaxis  tick minor 5000
@    yaxis  tick offsetx 0.000000
@    yaxis  tick offsety 0.000000
@    yaxis  label "Energy (meV)"
@    yaxis  label layout para
@    yaxis  label place auto
@    yaxis  label char size 2.000000
@    yaxis  label font 0
@    yaxis  label color 1
@    yaxis  label linewidth 1
@    yaxis  ticklabel off
@    yaxis  ticklabel type auto
@    yaxis  ticklabel prec 1
@    yaxis  ticklabel format decimal
@    yaxis  ticklabel append ""
@    yaxis  ticklabel prepend ""
@    yaxis  ticklabel layout horizontal
@    yaxis  ticklabel skip 0
@    yaxis  ticklabel stagger 0
@    yaxis  ticklabel op left
@    yaxis  ticklabel sign normal
@    yaxis  ticklabel start type auto
@    yaxis  ticklabel start 0.000000
@    yaxis  ticklabel stop type auto
@    yaxis  ticklabel stop 0.000000
@    yaxis  ticklabel char size 2.000000
@    yaxis  ticklabel font 0
@    yaxis  ticklabel color 1
@    yaxis  ticklabel linewidth 1
@    yaxis  tick major off
@    yaxis  tick minor on
@    yaxis  tick default 6
@    yaxis  tick in
@    yaxis  tick major color 1
@    yaxis  tick major linewidth 1
@    yaxis  tick major linestyle 1
@    yaxis  tick minor color 1
@    yaxis  tick minor linewidth 1
@    yaxis  tick minor linestyle 1
@    yaxis  tick log off
@    yaxis  tick size 1.000000
@    yaxis  tick minor size 0.500000
@    yaxis  bar off
@    yaxis  bar color 1
@    yaxis  bar linestyle 1
@    yaxis  bar linewidth 1
@    yaxis  tick major grid off
@    yaxis  tick minor grid off
@    yaxis  tick op both
@    yaxis  tick type auto
@    yaxis  tick spec 0
@    zeroxaxis  tick on
@    zeroxaxis  tick major 20
@    zeroxaxis  tick minor 10
@    zeroxaxis  tick offsetx 0.000000
@    zeroxaxis  tick offsety 0.000000
@    zeroxaxis  label ""
@    zeroxaxis  label layout para
@    zeroxaxis  label place auto
@    zeroxaxis  label char size 1.000000
@    zeroxaxis  label font 4
@    zeroxaxis  label color 1
@    zeroxaxis  label linewidth 1
@    zeroxaxis  ticklabel off
@    zeroxaxis  ticklabel type auto
@    zeroxaxis  ticklabel prec 1
@    zeroxaxis  ticklabel format exponential
@    zeroxaxis  ticklabel append ""
@    zeroxaxis  ticklabel prepend ""
@    zeroxaxis  ticklabel layout horizontal
@    zeroxaxis  ticklabel skip 0
@    zeroxaxis  ticklabel stagger 0
@    zeroxaxis  ticklabel op bottom
@    zeroxaxis  ticklabel sign normal
@    zeroxaxis  ticklabel start type auto
@    zeroxaxis  ticklabel start 0.000000
@    zeroxaxis  ticklabel stop type auto
@    zeroxaxis  ticklabel stop 0.000000
@    zeroxaxis  ticklabel char size 1.000000
@    zeroxaxis  ticklabel font 4
@    zeroxaxis  ticklabel color 1
@    zeroxaxis  ticklabel linewidth 1
@    zeroxaxis  tick major off
@    zeroxaxis  tick minor on
@    zeroxaxis  tick default 6
@    zeroxaxis  tick in
@    zeroxaxis  tick major color 1
@    zeroxaxis  tick major linewidth 1
@    zeroxaxis  tick major linestyle 1
@    zeroxaxis  tick minor color 1
@    zeroxaxis  tick minor linewidth 1
@    zeroxaxis  tick minor linestyle 1
@    zeroxaxis  tick log off
@    zeroxaxis  tick size 1.000000
@    zeroxaxis  tick minor size 0.500000
@    zeroxaxis  bar off
@    zeroxaxis  bar color 1
@    zeroxaxis  bar linestyle 1
@    zeroxaxis  bar linewidth 1
@    zeroxaxis  tick major grid off
@    zeroxaxis  tick minor grid off
@    zeroxaxis  tick op both
@    zeroxaxis  tick type auto
@    zeroxaxis  tick spec 0
@    zeroyaxis  tick on
@    zeroyaxis  tick major 10000
@    zeroyaxis  tick minor 5000
@    zeroyaxis  tick offsetx 0.000000
@    zeroyaxis  tick offsety 0.000000
@    zeroyaxis  label ""
@    zeroyaxis  label layout para
@    zeroyaxis  label place auto
@    zeroyaxis  label char size 1.000000
@    zeroyaxis  label font 4
@    zeroyaxis  label color 1
@    zeroyaxis  label linewidth 1
@    zeroyaxis  ticklabel off
@    zeroyaxis  ticklabel type auto
@    zeroyaxis  ticklabel prec 1
@    zeroyaxis  ticklabel format decimal
@    zeroyaxis  ticklabel append ""
@    zeroyaxis  ticklabel prepend ""
@    zeroyaxis  ticklabel layout horizontal
@    zeroyaxis  ticklabel skip 0
@    zeroyaxis  ticklabel stagger 0
@    zeroyaxis  ticklabel op left
@    zeroyaxis  ticklabel sign normal
@    zeroyaxis  ticklabel start type auto
@    zeroyaxis  ticklabel start 0.000000
@    zeroyaxis  ticklabel stop type auto
@    zeroyaxis  ticklabel stop 0.000000
@    zeroyaxis  ticklabel char size 1.000000
@    zeroyaxis  ticklabel font 4
@    zeroyaxis  ticklabel color 1
@    zeroyaxis  ticklabel linewidth 1
@    zeroyaxis  tick major off
@    zeroyaxis  tick minor on
@    zeroyaxis  tick default 6
@    zeroyaxis  tick in
@    zeroyaxis  tick major color 1
@    zeroyaxis  tick major linewidth 1
@    zeroyaxis  tick major linestyle 1
@    zeroyaxis  tick minor color 1
@    zeroyaxis  tick minor linewidth 1
@    zeroyaxis  tick minor linestyle 1
@    zeroyaxis  tick log off
@    zeroyaxis  tick size 1.000000
@    zeroyaxis  tick minor size 0.500000
@    zeroyaxis  bar off
@    zeroyaxis  bar color 1
@    zeroyaxis  bar linestyle 1
@    zeroyaxis  bar linewidth 1
@    zeroyaxis  tick major grid off
@    zeroyaxis  tick minor grid off
@    zeroyaxis  tick op both
@    zeroyaxis  tick type auto
@    zeroyaxis  tick spec 0
@    legend off
@    legend loctype view
@    legend layout 0
@    legend vgap 2
@    legend hgap 1
@    legend length 4
@    legend box off
@    legend box fill off
@    legend box fill with color
@    legend box fill color 0
@    legend box fill pattern 1
@    legend box color 1
@    legend box linewidth 1
@    legend box linestyle 1
@    legend x1 0.8
@    legend y1 0.8
@    legend font 4
@    legend char size 1.000000
@    legend linestyle 1
@    legend linewidth 1
@    legend color 1
@    frame on
@    frame type 0
@    frame linestyle 1
@    frame linewidth 1
@    frame color 1
@    frame fill off
@    frame background color 0
@WITH G0
@G0 ON
@TYPE xy
               0                0
          0.1001          44.4732
          0.2002           88.946
          0.3003          133.418
          0.4004          177.889
        0.500501          222.357
        0.600601          266.824
        0.700701          311.288
        0.800801          355.749
        0.900901          400.206
           1.001           444.66
          1.1011          489.109
          1.2012          533.553
          1.3013          577.992
          1.4014          622.425
          1.5015          666.852
          1.6016          711.273
          1.7017          755.686
          1.8018          800.092
          1.9019           844.49
           2.002           888.88
          2.1021          933.261
          2.2022          977.632
          2.3023          1021.99
          2.4024          1066.35
          2.5025          1110.69
          2.6026          1155.02
          2.7027          1199.34
          2.8028          1243.64
          2.9029          1287.94
           3.003          1332.22
          3.1031          1376.49
          3.2032          1420.74
          3.3033          1464.99
          3.4034          1509.21
          3.5035          1553.42
          3.6036          1597.62
          3.7037           1641.8
          3.8038          1685.97
          3.9039          1730.11
           4.004          1774.24
          4.1041          1818.36
          4.2042          1862.45
          4.3043          1906.53
          4.4044          1950.59
          4.5045          1994.63
          4.6046          2038.64
          4.7047          2082.64
          4.8048          2126.62
          4.9049          2170.58
         5.00501          2214.51
         5.10511          2258.43
         5.20521          2302.32
         5.30531          2346.19
         5.40541          2390.03
         5.50551          2433.85
         5.60561          2477.65
         5.70571          2521.42
         5.80581          2565.17
         5.90591           2608.9
         6.00601          2652.59
         6.10611          2696.26
         6.20621          2739.91
         6.30631          2783.53
         6.40641          2827.11
         6.50651          2870.68
         6.60661          2914.21
         6.70671          2957.71
         6.80681          3001.19
         6.90691          3044.63
         7.00701          3088.05
         7.10711          3131.43
         7.20721          3174.79
         7.30731          3218.11
         7.40741           3261.4
         7.50751          3304.66
         7.60761          3347.88
         7.70771          3391.08
         7.80781          3434.24
         7.90791          3477.36
         8.00801          3520.45
         8.10811          3563.51
         8.20821          3606.53
         8.30831          3649.51
         8.40841          3692.46
         8.50851          3735.37
         8.60861          3778.25
         8.70871          3821.09
         8.80881          3863.89
         8.90891          3906.65
         9.00901          3949.37
         9.10911          3992.06
         9.20921           4034.7
         9.30931          4077.31
         9.40941          4119.87
         9.50951           4162.4
         9.60961          4204.88
         9.70971          4247.32
         9.80981          4289.72
         9.90991          4332.08
           10.01          4374.39
         10.1101          4416.66
         10.2102          4458.89
         10.3103          4501.07
         10.4104          4543.21
         10.5105           4585.3
         10.6106          4627.35
         10.7107          4669.35
         10.8108          4711.31
         10.9109          4753.22
          11.011          4795.08
         11.1111           4836.9
         11.2112          4878.66
         11.3113          4920.38
         11.4114          4962.05
         11.5115          5003.67
         11.6116          5045.24
         11.7117          5086.77
         11.8118          5128.24
         11.9119          5169.66
          12.012          5211.03
         12.1121          5252.35
         12.2122          5293.61
         12.3123          5334.83
         12.4124          5375.99
         12.5125           5417.1
         12.6126          5458.15
         12.7127          5499.15
         12.8128           5540.1
         12.9129          5580.99
          13.013          5621.82
         13.1131          5662.61
         13.2132          5703.33
         13.3133             5744
         13.4134          5784.61
         13.5135          5825.16
         13.6136          5865.66
         13.7137           5906.1
         13.8138          5946.48
         13.9139           5986.8
          14.014          6027.06
         14.1141          6067.26
         14.2142          6107.41
         14.3143          6147.49
         14.4144          6187.51
         14.5145          6227.47
         14.6146          6267.37
         14.7147           6307.2
         14.8148          6346.98
         14.9149          6386.69
          15.015          6426.34
         15.1151          6465.92
         15.2152          6505.44
         15.3153           6544.9
         15.4154          6584.29
         15.5155          6623.62
         15.6156          6662.88
         15.7157          6702.07
         15.8158           6741.2
         15.9159          6780.27
          16.016          6819.26
         16.1161          6858.19
         16.2162          6897.05
         16.3163          6935.84
         16.4164          6974.56
         16.5165          7013.22
         16.6166           7051.8
         16.7167          7090.32
         16.8168          7128.76
         16.9169          7167.14
          17.017          7205.44
         17.1171          7243.67
         17.2172          7281.83
         17.3173          7319.92
         17.4174          7357.94
         17.5175          7395.88
         17.6176          7433.75
         17.7177          7471.55
         17.8178          7509.27
         17.9179          7546.92
          18.018          7584.49
         18.1181          7621.99
         18.2182          7659.42
         18.3183          7696.76
         18.4184          7734.04
         18.5185          7771.23
         18.6186          7808.35
         18.7187          7845.39
         18.8188          7882.35
         18.9189          7919.24
          19.019          7956.05
         19.1191          7992.78
         19.2192          8029.42
         19.3193             8066
         19.4194          8102.49
         19.5195           8138.9
         19.6196          8175.23
         19.7197          8211.47
         19.8198          8247.64
         19.9199          8283.73
           20.02          8319.73
         20.1201          8355.66
         20.2202          8391.49
         20.3203          8427.25
         20.4204          8462.92
         20.5205          8498.51
         20.6206          8534.02
         20.7207          8569.44
         20.8208          8604.78
         20.9209          8640.03
          21.021          8675.19
         21.1211          8710.27
         21.2212          8745.27
         21.3213          8780.17
         21.4214          8814.99
         21.5215          8849.73
         21.6216          8884.37
         21.7217          8918.93
         21.8218           8953.4
         21.9219          8987.78
          22.022          9022.07
         22.1221          9056.28
         22.2222          9090.39
         22.3223          9124.41
         22.4224          9158.35
         22.5225          9192.19
         22.6226          9225.94
         22.7227           9259.6
         22.8228          9293.17
         22.9229          9326.65
          23.023          9360.03
         23.1231          9393.32
         23.2232          9426.52
         23.3233          9459.63
         23.4234          9492.64
         23.5235          9525.56
         23.6236          9558.39
         23.7237          9591.12
         23.8238          9623.75
         23.9239          9656.29
          24.024          9688.74
         24.1241          9721.08
         24.2242          9753.34
         24.3243          9785.49
         24.4244          9817.55
         24.5245          9849.51
         24.6246          9881.38
         24.7247          9913.15
         24.8248          9944.82
         24.9249          9976.39
          25.025          10007.9
         25.1251          10039.2
         25.2252          10070.5
         25.3253          10101.7
         25.4254          10132.8
         25.5255          10163.7
         25.6256          10194.6
         25.7257          10225.4
         25.8258            10256
         25.9259          10286.6
          26.026          10317.1
         26.1261          10347.5
         26.2262          10377.7
         26.3263          10407.9
         26.4264          10437.9
         26.5265          10467.9
         26.6266          10497.7
         26.7267          10527.5
         26.8268          10557.1
         26.9269          10586.7
          27.027          10616.1
         27.1271          10645.4
         27.2272          10674.7
         27.3273          10703.8
         27.4274          10732.8
         27.5275          10761.7
         27.6276          10790.5
         27.7277          10819.2
         27.8278          10847.8
         27.9279          10876.3
          28.028          10904.6
         28.1281          10932.9
         28.2282          10961.1
         28.3283          10989.1
         28.4284            11017
         28.5285          11044.9
         28.6286          11072.6
         28.7287          11100.2
         28.8288          11127.7
         28.9289          11155.1
          29.029          11182.4
         29.1291          11209.6
         29.2292          11236.6
         29.3293          11263.6
         29.4294          11290.4
         29.5295          11317.1
         29.6296          11343.7
         29.7297          11370.2
         29.8298          11396.6
         29.9299          11422.9
           30.03          11449.1
         30.1301          11475.1
         30.2302          11501.1
         30.3303          11526.9
         30.4304          11552.6
         30.5305          11578.2
         30.6306          11603.7
         30.7307            11629
         30.8308          11654.3
         30.9309          11679.4
          31.031          11704.4
         31.1311          11729.3
         31.2312          11754.1
         31.3313          11778.8
         31.4314          11803.3
         31.5315          11827.8
         31.6316          11852.1
         31.7317          11876.3
         31.8318          11900.4
         31.9319          11924.4
          32.032          11948.2
         32.1321            11972
         32.2322          11995.6
         32.3323          12019.1
         32.4324          12042.4
         32.5325          12065.7
         32.6326          12088.8
         32.7327          12111.9
         32.8328          12134.8
         32.9329          12157.5
          33.033          12180.2
         33.1331          12202.7
         33.2332          12225.2
         33.3333          12247.4
         33.4334          12269.6
         33.5335          12291.7
         33.6336          12313.6
         33.7337          12335.4
         33.8338          12357.1
         33.9339          12378.7
          34.034          12400.1
         34.1341          12421.4
         34.2342          12442.6
         34.3343          12463.7
         34.4344          12484.7
         34.5345          12505.5
         34.6346          12526.2
         34.7347          12546.8
         34.8348          12567.3
         34.9349          12587.6
          35.035          12607.8
         35.1351          12627.9
         35.2352          12647.8
         35.3353          12667.7
         35.4354          12687.4
         35.5355            12707
         35.6356          12726.4
         35.7357          12745.8
         35.8358            12765
         35.9359            12784
          36.036            12803
         36.1361          12821.8
         36.2362          12840.5
         36.3363          12859.1
         36.4364          12877.5
         36.5365          12895.9
         36.6366          12914.1
         36.7367          12932.1
         36.8368          12950.1
         36.9369          12967.9
          37.037          12985.5
         37.1371          13003.1
         37.2372          13020.5
         37.3373          13037.8
         37.4374            13055
         37.5375            13072
         37.6376          13088.9
         37.7377          13105.7
         37.8378          13122.3
         37.9379          13138.8
          38.038          13155.2
         38.1381          13171.5
         38.2382          13187.6
         38.3383          13203.6
         38.4384          13219.5
         38.5385          13235.2
         38.6386          13250.8
         38.7387          13266.3
         38.8388          13281.6
         38.9389          13296.8
          39.039          13311.9
         39.1391          13326.9
         39.2392          13341.7
         39.3393          13356.4
         39.4394          13370.9
         39.5395          13385.3
         39.6396          13399.6
         39.7397          13413.8
         39.8398          13427.8
         39.9399          13441.7
           40.04          13455.5
         40.1401          13469.1
         40.2402          13482.6
         40.3403          13495.9
         40.4404          13509.2
         40.5405          13522.2
         40.6406          13535.2
         40.7407            13548
         40.8408          13560.7
         40.9409          13573.3
          41.041          13585.7
         41.1411            13598
         41.2412          13610.1
         41.3413          13622.1
         41.4414            13634
         41.5415          13645.8
         41.6416          13657.4
         41.7417          13668.8
         41.8418          13680.2
         41.9419          13691.4
          42.042          13702.5
         42.1421          13713.4
         42.2422          13724.2
         42.3423          13734.9
         42.4424          13745.4
         42.5425          13755.8
         42.6426            13766
         42.7427          13776.2
         42.8428          13786.1
         42.9429            13796
          43.043          13805.7
         43.1431          13815.3
         43.2432          13824.7
         43.3433            13834
         43.4434          13843.2
         43.5435          13852.2
         43.6436          13861.1
         43.7437          13869.9
         43.8438          13878.5
         43.9439            13887
          44.044          13895.3
         44.1441          13903.5
         44.2442          13911.6
         44.3443          13919.5
         44.4444          13927.3
         44.5445          13934.9
         44.6446          13942.5
         44.7447          13949.8
         44.8448          13957.1
         44.9449          13964.2
          45.045          13971.1
         45.1451            13978
         45.2452          13984.7
         45.3453          13991.2
         45.4454          13997.6
         45.5455          14003.9
         45.6456            14010
         45.7457            14016
         45.8458          14021.9
         45.9459          14027.6
          46.046          14033.2
         46.1461          14038.6
         46.2462          14043.9
         46.3463          14049.1
         46.4464          14054.1
         46.5465            14059
         46.6466          14063.7
         46.7467          14068.3
         46.8468          14072.8
         46.9469          14077.1
          47.047          14081.3
         47.1471          14085.4
         47.2472          14089.3
         47.3473          14093.1
         47.4474          14096.7
         47.5475          14100.2
         47.6476          14103.5
         47.7477          14106.7
         47.8478          14109.8
         47.9479          14112.8
          48.048          14115.6
         48.1481          14118.2
         48.2482          14120.7
         48.3483          14123.1
         48.4484          14125.3
         48.5485          14127.4
         48.6486          14129.4
         48.7487          14131.2
         48.8488          14132.9
         48.9489          14134.4
          49.049          14135.8
         49.1491          14137.1
         49.2492          14138.2
         49.3493          14139.2
         49.4494            14140
         49.5495          14140.7
         49.6496          14141.3
         49.7497          14141.7
         49.8498            14142
         49.9499          14142.1
         50.0501          14142.1
         50.1502            14142
         50.2503          14141.7
         50.3504          14141.3
         50.4505          14140.7
         50.5506            14140
         50.6507          14139.2
         50.7508          14138.2
         50.8509          14137.1
          50.951          14135.8
         51.0511          14134.4
         51.1512          14132.9
         51.2513          14131.2
         51.3514          14129.4
         51.4515          14127.4
         51.5516          14125.3
         51.6517          14123.1
         51.7518          14120.7
         51.8519          14118.2
          51.952          14115.6
         52.0521          14112.8
         52.1522          14109.8
         52.2523          14106.7
         52.3524          14103.5
         52.4525          14100.2
         52.5526          14096.7
         52.6527          14093.1
         52.7528          14089.3
         52.8529          14085.4
          52.953          14081.3
         53.0531          14077.1
         53.1532          14072.8
         53.2533          14068.3
         53.3534          14063.7
         53.4535            14059
         53.5536          14054.1
         53.6537          14049.1
         53.7538          14043.9
         53.8539          14038.6
          53.954          14033.2
         54.0541          14027.6
         54.1542          14021.9
         54.2543            14016
         54.3544            14010
         54.4545          14003.9
         54.5546          13997.6
         54.6547          13991.2
         54.7548          13984.7
         54.8549            13978
          54.955          13971.1
         55.0551          13964.2
         55.1552          13957.1
         55.2553          13949.8
         55.3554          13942.5
         55.4555          13934.9
         55.5556          13927.3
         55.6557          13919.5
         55.7558          13911.6
         55.8559          13903.5
          55.956          13895.3
         56.0561            13887
         56.1562          13878.5
         56.2563          13869.9
         56.3564          13861.1
         56.4565          13852.2
         56.5566          13843.2
         56.6567            13834
         56.7568          13824.7
         56.8569          13815.3
          56.957          13805.7
         57.0571            13796
         57.1572          13786.1
         57.2573          13776.2
         57.3574            13766
         57.4575          13755.8
         57.5576          13745.4
         57.6577          13734.9
         57.7578          13724.2
         57.8579          13713.4
          57.958          13702.5
         58.0581          13691.4
         58.1582          13680.2
         58.2583          13668.8
         58.3584          13657.4
         58.4585          13645.8
         58.5586            13634
         58.6587          13622.1
         58.7588          13610.1
         58.8589            13598
          58.959          13585.7
         59.0591          13573.3
         59.1592          13560.7
         59.2593            13548
         59.3594          13535.2
         59.4595          13522.2
         59.5596          13509.2
         59.6597          13495.9
         59.7598          13482.6
         59.8599          13469.1
           59.96          13455.5
         60.0601          13441.7
         60.1602          13427.8
         60.2603          13413.8
         60.3604          13399.6
         60.4605          13385.3
         60.5606          13370.9
         60.6607          13356.4
         60.7608          13341.7
         60.8609          13326.9
          60.961          13311.9
         61.0611          13296.8
         61.1612          13281.6
         61.2613          13266.3
         61.3614          13250.8
         61.4615          13235.2
         61.5616          13219.5
         61.6617          13203.6
         61.7618          13187.6
         61.8619          13171.5
          61.962          13155.2
         62.0621          13138.8
         62.1622          13122.3
         62.2623          13105.7
         62.3624          13088.9
         62.4625            13072
         62.5626            13055
         62.6627          13037.8
         62.7628          13020.5
         62.8629          13003.1
          62.963          12985.5
         63.0631          12967.9
         63.1632          12950.1
         63.2633          12932.1
         63.3634          12914.1
         63.4635          12895.9
         63.5636          12877.5
         63.6637          12859.1
         63.7638          12840.5
         63.8639          12821.8
          63.964            12803
         64.0641            12784
         64.1642            12765
         64.2643          12745.8
         64.3644          12726.4
         64.4645            12707
         64.5646          12687.4
         64.6647          12667.7
         64.7648          12647.8
         64.8649          12627.9
          64.965          12607.8
         65.0651          12587.6
         65.1652          12567.3
         65.2653          12546.8
         65.3654          12526.2
         65.4655          12505.5
         65.5656          12484.7
         65.6657          12463.7
         65.7658          12442.6
         65.8659          12421.4
          65.966          12400.1
         66.0661          12378.7
         66.1662          12357.1
         66.2663          12335.4
         66.3664          12313.6
         66.4665          12291.7
         66.5666          12269.6
         66.6667          12247.4
         66.7668          12225.2
         66.8669          12202.7
          66.967          12180.2
         67.0671          12157.5
         67.1672          12134.8
         67.2673          12111.9
         67.3674          12088.8
         67.4675          12065.7
         67.5676          12042.4
         67.6677          12019.1
         67.7678          11995.6
         67.8679            11972
          67.968          11948.2
         68.0681          11924.4
         68.1682          11900.4
         68.2683          11876.3
         68.3684          11852.1
         68.4685          11827.8
         68.5686          11803.3
         68.6687          11778.8
         68.7688          11754.1
         68.8689          11729.3
          68.969          11704.4
         69.0691          11679.4
         69.1692          11654.3
         69.2693            11629
         69.3694          11603.7
         69.4695          11578.2
         69.5696          11552.6
         69.6697          11526.9
         69.7698          11501.1
         69.8699          11475.1
           69.97          11449.1
         70.0701          11422.9
         70.1702          11396.6
         70.2703          11370.2
         70.3704          11343.7
         70.4705          11317.1
         70.5706          11290.4
         70.6707          11263.6
         70.7708          11236.6
         70.8709          11209.6
          70.971          11182.4
         71.0711          11155.1
         71.1712          11127.7
         71.2713          11100.2
         71.3714          11072.6
         71.4715          11044.9
         71.5716            11017
         71.6717          10989.1
         71.7718          10961.1
         71.8719          10932.9
          71.972          10904.6
         72.0721          10876.3
         72.1722          10847.8
         72.2723          10819.2
         72.3724          10790.5
         72.4725          10761.7
         72.5726          10732.8
         72.6727          10703.8
         72.7728          10674.7
         72.8729          10645.4
          72.973          10616.1
         73.0731          10586.7
         73.1732          10557.1
         73.2733          10527.5
         73.3734          10497.7
         73.4735          10467.9
         73.5736          10437.9
         73.6737          10407.9
         73.7738          10377.7
         73.8739          10347.5
          73.974          10317.1
         74.0741          10286.6
         74.1742            10256
         74.2743          10225.4
         74.3744          10194.6
         74.4745          10163.7
         74.5746          10132.8
         74.6747          10101.7
         74.7748          10070.5
         74.8749          10039.2
          74.975          10007.9
         75.0751          9976.39
         75.1752          9944.82
         75.2753          9913.15
         75.3754          9881.38
         75.4755          9849.51
         75.5756          9817.55
         75.6757          9785.49
         75.7758          9753.34
         75.8759          9721.08
          75.976          9688.74
         76.0761          9656.29
         76.1762          9623.75
         76.2763          9591.12
         76.3764          9558.39
         76.4765          9525.56
         76.5766          9492.64
         76.6767          9459.63
         76.7768          9426.52
         76.8769          9393.32
          76.977          9360.03
         77.0771          9326.65
         77.1772          9293.17
         77.2773           9259.6
         77.3774          9225.94
         77.4775          9192.19
         77.5776          9158.35
         77.6777          9124.41
         77.7778          9090.39
         77.8779          9056.28
          77.978          9022.07
         78.0781          8987.78
         78.1782           8953.4
         78.2783          8918.93
         78.3784          8884.37
         78.4785          8849.73
         78.5786          8814.99
         78.6787          8780.17
         78.7788          8745.27
         78.8789          8710.27
          78.979          8675.19
         79.0791          8640.03
         79.1792          8604.78
         79.2793          8569.44
         79.3794          8534.02
         79.4795          8498.51
         79.5796          8462.92
         79.6797          8427.25
         79.7798          8391.49
         79.8799          8355.66
           79.98          8319.73
         80.0801          8283.73
         80.1802          8247.64
         80.2803          8211.47
         80.3804          8175.23
         80.4805           8138.9
         80.5806          8102.49
         80.6807             8066
         80.7808          8029.42
         80.8809          7992.78
          80.981          7956.05
         81.0811          7919.24
         81.1812          7882.35
         81.2813          7845.39
         81.3814          7808.35
         81.4815          7771.23
         81.5816          7734.04
         81.6817          7696.76
         81.7818          7659.42
         81.8819          7621.99
          81.982          7584.49
         82.0821          7546.92
         82.1822          7509.27
         82.2823          7471.55
         82.3824          7433.75
         82.4825          7395.88
         82.5826          7357.94
         82.6827          7319.92
         82.7828          7281.83
         82.8829          7243.67
          82.983          7205.44
         83.0831          7167.14
         83.1832          7128.76
         83.2833          7090.32
         83.3834           7051.8
         83.4835          7013.22
         83.5836          6974.56
         83.6837          6935.84
         83.7838          6897.05
         83.8839          6858.19
          83.984          6819.26
         84.0841          6780.27
         84.1842           6741.2
         84.2843          6702.07
         84.3844          6662.88
         84.4845          6623.62
         84.5846          6584.29
         84.6847           6544.9
         84.7848          6505.44
         84.8849          6465.92
          84.985          6426.34
         85.0851          6386.69
         85.1852          6346.98
         85.2853           6307.2
         85.3854          6267.37
         85.4855          6227.47
         85.5856          6187.51
         85.6857          6147.49
         85.7858          6107.41
         85.8859          6067.26
          85.986          6027.06
         86.0861           5986.8
         86.1862          5946.48
         86.2863           5906.1
         86.3864          5865.66
         86.4865          5825.16
         86.5866          5784.61
         86.6867             5744
         86.7868          5703.33
         86.8869          5662.61
          86.987          5621.82
         87.0871          5580.99
         87.1872           5540.1
         87.2873          5499.15
         87.3874          5458.15
         87.4875           5417.1
         87.5876          5375.99
         87.6877          5334.83
         87.7878          5293.61
         87.8879          5252.35
          87.988          5211.03
         88.0881          5169.66
         88.1882          5128.24
         88.2883          5086.77
         88.3884          5045.24
         88.4885          5003.67
         88.5886          4962.05
         88.6887          4920.38
         88.7888          4878.66
         88.8889           4836.9
          88.989          4795.08
         89.0891          4753.22
         89.1892          4711.31
         89.2893          4669.35
         89.3894          4627.35
         89.4895           4585.3
         89.5896          4543.21
         89.6897          4501.07
         89.7898          4458.89
         89.8899          4416.66
           89.99          4374.39
         90.0901          4332.08
         90.1902          4289.72
         90.2903          4247.32
         90.3904          4204.88
         90.4905           4162.4
         90.5906          4119.87
         90.6907          4077.31
         90.7908           4034.7
         90.8909          3992.06
          90.991          3949.37
         91.0911          3906.65
         91.1912          3863.89
         91.2913          3821.09
         91.3914          3778.25
         91.4915          3735.37
         91.5916          3692.46
         91.6917          3649.51
         91.7918          3606.53
         91.8919          3563.51
          91.992          3520.45
         92.0921          3477.36
         92.1922          3434.24
         92.2923          3391.08
         92.3924          3347.88
         92.4925          3304.66
         92.5926           3261.4
         92.6927          3218.11
         92.7928          3174.79
         92.8929          3131.43
          92.993          3088.05
         93.0931          3044.63
         93.1932          3001.19
         93.2933          2957.71
         93.3934          2914.21
         93.4935          2870.68
         93.5936          2827.11
         93.6937          2783.53
         93.7938          2739.91
         93.8939          2696.26
          93.994          2652.59
         94.0941           2608.9
         94.1942          2565.17
         94.2943          2521.42
         94.3944          2477.65
         94.4945          2433.85
         94.5946          2390.03
         94.6947          2346.19
         94.7948          2302.32
         94.8949          2258.43
          94.995          2214.51
         95.0951          2170.58
         95.1952          2126.62
         95.2953          2082.64
         95.3954          2038.64
         95.4955          1994.63
         95.5956          1950.59
         95.6957          1906.53
         95.7958          1862.45
         95.8959          1818.36
          95.996          1774.24
         96.0961          1730.11
         96.1962          1685.97
         96.2963           1641.8
         96.3964          1597.62
         96.4965          1553.42
         96.5966          1509.21
         96.6967          1464.99
         96.7968          1420.74
         96.8969          1376.49
          96.997          1332.22
         97.0971          1287.94
         97.1972          1243.64
         97.2973          1199.34
         97.3974          1155.02
         97.4975          1110.69
         97.5976          1066.35
         97.6977          1021.99
         97.7978          977.632
         97.8979          933.261
          97.998           888.88
         98.0981           844.49
         98.1982          800.092
         98.2983          755.686
         98.3984          711.273
         98.4985          666.852
         98.5986          622.425
         98.6987          577.992
         98.7988          533.553
         98.8989          489.109
          98.999           444.66
         99.0991          400.206
         99.1992          355.749
         99.2993          311.288
         99.3994          266.824
         99.4995          222.357
         99.5996          177.889
         99.6997          133.418
         99.7998           88.946
         99.8999          44.4732
             100                0
&
@TYPE xy
               0            30000
          0.1001          30088.9
          0.2002          30177.9
          0.3003          30266.8
          0.4004          30355.7
        0.500501          30444.7
        0.600601          30533.6
        0.700701          30622.4
        0.800801          30711.3
        0.900901          30800.1
           1.001          30888.9
          1.1011          30977.6
          1.2012          31066.3
          1.3013            31155
          1.4014          31243.6
          1.5015          31332.2
          1.6016          31420.7
          1.7017          31509.2
          1.8018          31597.6
          1.9019            31686
           2.002          31774.2
          2.1021          31862.5
          2.2022          31950.6
          2.3023          32038.6
          2.4024          32126.6
          2.5025          32214.5
          2.6026          32302.3
          2.7027            32390
          2.8028          32477.7
          2.9029          32565.2
           3.003          32652.6
          3.1031          32739.9
          3.2032          32827.1
          3.3033          32914.2
          3.4034          33001.2
          3.5035            33088
          3.6036          33174.8
          3.7037          33261.4
          3.8038          33347.9
          3.9039          33434.2
           4.004          33520.5
          4.1041          33606.5
          4.2042          33692.5
          4.3043          33778.2
          4.4044          33863.9
          4.5045          33949.4
          4.6046          34034.7
          4.7047          34119.9
          4.8048          34204.9
          4.9049          34289.7
         5.00501          34374.4
         5.10511          34458.9
         5.20521          34543.2
         5.30531          34627.3
         5.40541          34711.3
         5.50551          34795.1
         5.60561          34878.7
         5.70571          34962.1
         5.80581          35045.2
         5.90591          35128.2
         6.00601            35211
         6.10611          35293.6
         6.20621            35376
         6.30631          35458.2
         6.40641          35540.1
         6.50651          35621.8
         6.60661          35703.3
         6.70671          35784.6
         6.80681          35865.7
         6.90691          35946.5
         7.00701          36027.1
         7.10711          36107.4
         7.20721          36187.5
         7.30731          36267.4
         7.40741            36347
         7.50751          36426.3
         7.60761          36505.4
         7.70771          36584.3
         7.80781          36662.9
         7.90791          36741.2
         8.00801          36819.3
         8.10811            36897
         8.20821          36974.6
         8.30831          37051.8
         8.40841          37128.8
         8.50851          37205.4
         8.60861          37281.8
         8.70871          37357.9
         8.80881          37433.8
         8.90891          37509.3
         9.00901          37584.5
         9.10911          37659.4
         9.20921            37734
         9.30931          37808.3
         9.40941          37882.4
         9.50951            37956
         9.60961          38029.4
         9.70971          38102.5
         9.80981          38175.2
         9.90991          38247.6
           10.01          38319.7
         10.1101          38391.5
         10.2102          38462.9
         10.3103            38534
         10.4104          38604.8
         10.5105          38675.2
         10.6106          38745.3
         10.7107            38815
         10.8108          38884.4
         10.9109          38953.4
          11.011          39022.1
         11.1111          39090.4
         11.2112          39158.3
         11.3113          39225.9
         11.4114          39293.2
         11.5115            39360
         11.6116          39426.5
         11.7117          39492.6
         11.8118          39558.4
         11.9119          39623.8
          12.012          39688.7
         12.1121          39753.3
         12.2122          39817.6
         12.3123          39881.4
         12.4124          39944.8
         12.5125          40007.9
         12.6126          40070.5
         12.7127          40132.8
         12.8128          40194.6
         12.9129            40256
          13.013          40317.1
         13.1131          40377.7
         13.2132          40437.9
         13.3133          40497.7
         13.4134          40557.1
         13.5135          40616.1
         13.6136          40674.7
         13.7137          40732.8
         13.8138          40790.5
         13.9139          40847.8
          14.014          40904.6
         14.1141          40961.1
         14.2142            41017
         14.3143          41072.6
         14.4144          41127.7
         14.5145          41182.4
         14.6146          41236.6
         14.7147          41290.4
         14.8148          41343.7
         14.9149          41396.6
          15.015          41449.1
         15.1151          41501.1
         15.2152          41552.6
         15.3153          41603.7
         15.4154          41654.3
         15.5155          41704.4
         15.6156          41754.1
         15.7157          41803.3
         15.8158          41852.1
         15.9159          41900.4
          16.016          41948.2
         16.1161          41995.6
         16.2162          42042.4
         16.3163          42088.8
         16.4164          42134.8
         16.5165          42180.2
         16.6166          42225.2
         16.7167          42269.6
         16.8168          42313.6
         16.9169          42357.1
          17.017          42400.1
         17.1171          42442.6
         17.2172          42484.7
         17.3173          42526.2
         17.4174          42567.3
         17.5175          42607.8
         17.6176          42647.8
         17.7177          42687.4
         17.8178          42726.4
         17.9179            42765
          18.018            42803
         18.1181          42840.5
         18.2182          42877.5
         18.3183          42914.1
         18.4184          42950.1
         18.5185          42985.5
         18.6186          43020.5
         18.7187            43055
         18.8188          43088.9
         18.9189          43122.3
          19.019          43155.2
         19.1191          43187.6
         19.2192          43219.5
         19.3193          43250.8
         19.4194          43281.6
         19.5195          43311.9
         19.6196          43341.7
         19.7197          43370.9
         19.8198          43399.6
         19.9199          43427.8
           20.02          43455.5
         20.1201          43482.6
         20.2202          43509.2
         20.3203          43535.2
         20.4204          43560.7
         20.5205          43585.7
         20.6206          43610.1
         20.7207            43634
         20.8208          43657.4
         20.9209          43680.2
          21.021          43702.5
         21.1211          43724.2
         21.2212          43745.4
         21.3213            43766
         21.4214          43786.1
         21.5215          43805.7
         21.6216          43824.7
         21.7217          43843.2
         21.8218          43861.1
         21.9219          43878.5
          22.022          43895.3
         22.1221          43911.6
         22.2222          43927.3
         22.3223          43942.5
         22.4224          43957.1
         22.5225          43971.1
         22.6226          43984.7
         22.7227          43997.6
         22.8228            44010
         22.9229          44021.9
          23.023          44033.2
         23.1231          44043.9
         23.2232          44054.1
         23.3233          44063.7
         23.4234          44072.8
         23.5235          44081.3
         23.6236          44089.3
         23.7237          44096.7
         23.8238          44103.5
         23.9239          44109.8
          24.024          44115.6
         24.1241          44120.7
         24.2242          44125.3
         24.3243          44129.4
         24.4244          44132.9
         24.5245          44135.8
         24.6246          44138.2
         24.7247            44140
         24.8248          44141.3
         24.9249            44142
          25.025          44142.1
         25.1251          44141.7
         25.2252          44140.7
         25.3253          44139.2
         25.4254          44137.1
         25.5255          44134.4
         25.6256          44131.2
         25.7257          44127.4
         25.8258          44123.1
         25.9259          44118.2
          26.026          44112.8
         26.1261          44106.7
         26.2262          44100.2
         26.3263          44093.1
         26.4264          44085.4
         26.5265          44077.1
         26.6266          44068.3
         26.7267            44059
         26.8268          44049.1
         26.9269          44038.6
          27.027          44027.6
         27.1271            44016
         27.2272          44003.9
         27.3273          43991.2
         27.4274            43978
         27.5275          43964.2
         27.6276          43949.8
         27.7277          43934.9
         27.8278          43919.5
         27.9279          43903.5
          28.028            43887
         28.1281          43869.9
         28.2282          43852.2
         28.3283            43834
         28.4284          43815.3
         28.5285            43796
         28.6286          43776.2
         28.7287          43755.8
         28.8288          43734.9
         28.9289          43713.4
          29.029          43691.4
         29.1291          43668.8
         29.2292          43645.8
         29.3293          43622.1
         29.4294            43598
         29.5295          43573.3
         29.6296            43548
         29.7297          43522.2
         29.8298          43495.9
         29.9299          43469.1
           30.03          43441.7
         30.1301          43413.8
         30.2302          43385.3
         30.3303          43356.4
         30.4304          43326.9
         30.5305          43296.8
         30.6306          43266.3
         30.7307          43235.2
         30.8308          43203.6
         30.9309          43171.5
          31.031          43138.8
         31.1311          43105.7
         31.2312            43072
         31.3313          43037.8
         31.4314          43003.1
         31.5315          42967.9
         31.6316          42932.1
         31.7317          42895.9
         31.8318          42859.1
         31.9319          42821.8
          32.032            42784
         32.1321          42745.8
         32.2322            42707
         32.3323          42667.7
         32.4324          42627.9
         32.5325          42587.6
         32.6326          42546.8
         32.7327          42505.5
         32.8328          42463.7
         32.9329          42421.4
          33.033          42378.7
         33.1331          42335.4
         33.2332          42291.7
         33.3333          42247.4
         33.4334          42202.7
         33.5335          42157.5
         33.6336          42111.9
         33.7337          42065.7
         33.8338          42019.1
         33.9339            41972
          34.034          41924.4
         34.1341          41876.3
         34.2342          41827.8
         34.3343          41778.8
         34.4344          41729.3
         34.5345          41679.4
         34.6346            41629
         34.7347          41578.2
         34.8348          41526.9
         34.9349          41475.1
          35.035          41422.9
         35.1351          41370.2
         35.2352          41317.1
         35.3353          41263.6
         35.4354          41209.6
         35.5355          41155.1
         35.6356          41100.2
         35.7357          41044.9
         35.8358          40989.1
         35.9359          40932.9
          36.036          40876.3
         36.1361          40819.2
         36.2362          40761.7
         36.3363          40703.8
         36.4364          40645.4
         36.5365          40586.7
         36.6366          40527.5
         36.7367          40467.9
         36.8368          40407.9
         36.9369          40347.5
          37.037          40286.6
         37.1371          40225.4
         37.2372          40163.7
         37.3373          40101.7
         37.4374          40039.2
         37.5375          39976.4
         37.6376          39913.1
         37.7377          39849.5
         37.8378          39785.5
         37.9379          39721.1
          38.038          39656.3
         38.1381          39591.1
         38.2382          39525.6
         38.3383          39459.6
         38.4384          39393.3
         38.5385          39326.6
         38.6386          39259.6
         38.7387          39192.2
         38.8388          39124.4
         38.9389          39056.3
          39.039          38987.8
         39.1391          38918.9
         39.2392          38849.7
         39.3393          38780.2
         39.4394          38710.3
         39.5395            38640
         39.6396          38569.4
         39.7397          38498.5
         39.8398          38427.3
         39.9399          38355.7
           40.04          38283.7
         40.1401          38211.5
         40.2402          38138.9
         40.3403            38066
         40.4404          37992.8
         40.5405          37919.2
         40.6406          37845.4
         40.7407          37771.2
         40.8408          37696.8
         40.9409            37622
          41.041          37546.9
         41.1411          37471.5
         41.2412          37395.9
         41.3413          37319.9
         41.4414          37243.7
         41.5415          37167.1
         41.6416          37090.3
         41.7417          37013.2
         41.8418          36935.8
         41.9419          36858.2
          42.042          36780.3
         42.1421          36702.1
         42.2422          36623.6
         42.3423          36544.9
         42.4424          36465.9
         42.5425          36386.7
         42.6426          36307.2
         42.7427          36227.5
         42.8428          36147.5
         42.9429          36067.3
          43.043          35986.8
         43.1431          35906.1
         43.2432          35825.2
         43.3433            35744
         43.4434          35662.6
         43.5435            35581
         43.6436          35499.2
         43.7437          35417.1
         43.8438          35334.8
         43.9439          35252.3
          44.044          35169.7
         44.1441          35086.8
         44.2442          35003.7
         44.3443          34920.4
         44.4444          34836.9
         44.5445          34753.2
         44.6446          34669.4
         44.7447          34585.3
         44.8448          34501.1
         44.9449          34416.7
          45.045          34332.1
         45.1451          34247.3
         45.2452          34162.4
         45.3453          34077.3
         45.4454          33992.1
         45.5455          33906.7
         45.6456          33821.1
         45.7457          33735.4
         45.8458          33649.5
         45.9459          33563.5
          46.046          33477.4
         46.1461          33391.1
         46.2462          33304.7
         46.3463          33218.1
         46.4464          33131.4
         46.5465          33044.6
         46.6466          32957.7
         46.7467          32870.7
         46.8468          32783.5
         46.9469          32696.3
          47.047          32608.9
         47.1471          32521.4
         47.2472          32433.9
         47.3473          32346.2
         47.4474          32258.4
         47.5475          32170.6
         47.6476          32082.6
         47.7477          31994.6
         47.8478          31906.5
         47.9479          31818.4
          48.048          31730.1
         48.1481          31641.8
         48.2482          31553.4
         48.3483            31465
         48.4484          31376.5
         48.5485          31287.9
         48.6486          31199.3
         48.7487          31110.7
         48.8488            31022
         48.9489          30933.3
          49.049          30844.5
         49.1491          30755.7
         49.2492          30666.9
         49.3493            30578
         49.4494          30489.1
         49.5495          30400.2
         49.6496          30311.3
         49.7497          30222.4
         49.8498          30133.4
         49.9499          30044.5
         50.0501          29955.5
         50.1502          29866.6
         50.2503          29777.6
         50.3504          29688.7
         50.4505          29599.8
         50.5506          29510.9
         50.6507            29422
         50.7508          29333.1
         50.8509          29244.3
          50.951          29155.5
         51.0511          29066.7
         51.1512            28978
         51.2513          28889.3
         51.3514          28800.7
         51.4515          28712.1
         51.5516          28623.5
         51.6517            28535
         51.7518          28446.6
         51.8519          28358.2
          51.952          28269.9
         52.0521          28181.6
         52.1522          28093.5
         52.2523          28005.4
         52.3524          27917.4
         52.4525          27829.4
         52.5526          27741.6
         52.6527          27653.8
         52.7528          27566.1
         52.8529          27478.6
          52.953          27391.1
         53.0531          27303.7
         53.1532          27216.5
         53.2533          27129.3
         53.3534          27042.3
         53.4535          26955.4
         53.5536          26868.6
         53.6537          26781.9
         53.7538          26695.3
         53.8539          26608.9
          53.954          26522.6
         54.0541          26436.5
         54.1542          26350.5
         54.2543          26264.6
         54.3544          26178.9
         54.4545          26093.3
         54.5546          26007.9
         54.6547          25922.7
         54.7548          25837.6
         54.8549          25752.7
          54.955          25667.9
         55.0551          25583.3
         55.1552          25498.9
         55.2553          25414.7
         55.3554          25330.6
         55.4555          25246.8
         55.5556          25163.1
         55.6557          25079.6
         55.7558          24996.3
         55.8559          24913.2
          55.956          24830.3
         56.0561          24747.7
         56.1562          24665.2
         56.2563          24582.9
         56.3564          24500.8
         56.4565            24419
         56.5566          24337.4
         56.6567            24256
         56.7568          24174.8
         56.8569          24093.9
          56.957          24013.2
         57.0571          23932.7
         57.1572          23852.5
         57.2573          23772.5
         57.3574          23692.8
         57.4575          23613.3
         57.5576          23534.1
         57.6577          23455.1
         57.7578          23376.4
         57.8579          23297.9
          57.958          23219.7
         58.0581          23141.8
         58.1582          23064.2
         58.2583          22986.8
         58.3584          22909.7
         58.4585          22832.9
         58.5586          22756.3
         58.6587          22680.1
         58.7588          22604.1
         58.8589          22528.5
          58.959          22453.1
         59.0591            22378
         59.1592          22303.2
         59.2593          22228.8
         59.3594          22154.6
         59.4595          22080.8
         59.5596          22007.2
         59.6597            21934
         59.7598          21861.1
         59.8599          21788.5
           59.96          21716.3
         60.0601          21644.3
         60.1602          21572.7
         60.2603          21501.5
         60.3604          21430.6
         60.4605            21360
         60.5606          21289.7
         60.6607          21219.8
         60.7608          21150.3
         60.8609          21081.1
          60.961          21012.2
         61.0611          20943.7
         61.1612          20875.6
         61.2613          20807.8
         61.3614          20740.4
         61.4615          20673.4
         61.5616          20606.7
         61.6617          20540.4
         61.7618          20474.4
         61.8619          20408.9
          61.962          20343.7
         62.0621          20278.9
         62.1622          20214.5
         62.2623          20150.5
         62.3624          20086.9
         62.4625          20023.6
         62.5626          19960.8
         62.6627          19898.3
         62.7628          19836.3
         62.8629          19774.6
          62.963          19713.4
         63.0631          19652.5
         63.1632          19592.1
         63.2633          19532.1
         63.3634          19472.5
         63.4635          19413.3
         63.5636          19354.6
         63.6637          19296.2
         63.7638          19238.3
         63.8639          19180.8
          63.964          19123.7
         64.0641          19067.1
         64.1642          19010.9
         64.2643          18955.1
         64.3644          18899.8
         64.4645          18844.9
         64.5646          18790.4
         64.6647          18736.4
         64.7648          18682.9
         64.8649          18629.8
          64.965          18577.1
         65.0651          18524.9
         65.1652          18473.1
         65.2653          18421.8
         65.3654            18371
         65.4655          18320.6
         65.5656          18270.7
         65.6657          18221.2
         65.7658          18172.2
         65.8659          18123.7
          65.966          18075.6
         66.0661            18028
         66.1662          17980.9
         66.2663          17934.3
         66.3664          17888.1
         66.4665          17842.5
         66.5666          17797.3
         66.6667          17752.6
         66.7668          17708.3
         66.8669          17664.6
          66.967          17621.3
         67.0671          17578.6
         67.1672          17536.3
         67.2673          17494.5
         67.3674          17453.2
         67.4675          17412.4
         67.5676          17372.1
         67.6677          17332.3
         67.7678            17293
         67.8679          17254.2
          67.968            17216
         68.0681          17178.2
         68.1682          17140.9
         68.2683          17104.1
         68.3684          17067.9
         68.4685          17032.1
         68.5686          16996.9
         68.6687          16962.2
         68.7688            16928
         68.8689          16894.3
          68.969          16861.2
         69.0691          16828.5
         69.1692          16796.4
         69.2693          16764.8
         69.3694          16733.7
         69.4695          16703.2
         69.5696          16673.1
         69.6697          16643.6
         69.7698          16614.7
         69.8699          16586.2
           69.97          16558.3
         70.0701          16530.9
         70.1702          16504.1
         70.2703          16477.8
         70.3704            16452
         70.4705          16426.7
         70.5706            16402
         70.6707          16377.9
         70.7708          16354.2
         70.8709          16331.2
          70.971          16308.6
         71.0711          16286.6
         71.1712          16265.1
         71.2713          16244.2
         71.3714          16223.8
         71.4715            16204
         71.5716          16184.7
         71.6717            16166
         71.7718          16147.8
         71.8719          16130.1
          71.972            16113
         72.0721          16096.5
         72.1722          16080.5
         72.2723          16065.1
         72.3724          16050.2
         72.4725          16035.8
         72.5726            16022
         72.6727          16008.8
         72.7728          15996.1
         72.8729            15984
          72.973          15972.4
         73.0731          15961.4
         73.1732          15950.9
         73.2733            15941
         73.3734          15931.7
         73.4735          15922.9
         73.5736          15914.6
         73.6737          15906.9
         73.7738          15899.8
         73.8739          15893.3
          73.974          15887.2
         74.0741          15881.8
         74.1742          15876.9
         74.2743          15872.6
         74.3744          15868.8
         74.4745          15865.6
         74.5746          15862.9
         74.6747          15860.8
         74.7748          15859.3
         74.8749          15858.3
          74.975          15857.9
         75.0751            15858
         75.1752          15858.7
         75.2753            15860
         75.3754          15861.8
         75.4755          15864.2
         75.5756          15867.1
         75.6757          15870.6
         75.7758          15874.7
         75.8759          15879.3
          75.976          15884.4
         76.0761          15890.2
         76.1762          15896.5
         76.2763          15903.3
         76.3764          15910.7
         76.4765          15918.7
         76.5766          15927.2
         76.6767          15936.3
         76.7768          15945.9
         76.8769          15956.1
          76.977          15966.8
         77.0771          15978.1
         77.1772            15990
         77.2773          16002.4
         77.3774          16015.3
         77.4775          16028.9
         77.5776          16042.9
         77.6777          16057.5
         77.7778          16072.7
         77.8779          16088.4
          77.978          16104.7
         78.0781          16121.5
         78.1782          16138.9
         78.2783          16156.8
         78.3784          16175.3
         78.4785          16194.3
         78.5786          16213.9
         78.6787            16234
         78.7788          16254.6
         78.8789          16275.8
          78.979          16297.5
         79.0791          16319.8
         79.1792          16342.6
         79.2793            16366
         79.3794          16389.9
         79.4795          16414.3
         79.5796          16439.3
         79.6797          16464.8
         79.7798          16490.8
         79.8799          16517.4
           79.98          16544.5
         80.0801          16572.2
         80.1802          16600.4
         80.2803          16629.1
         80.3804          16658.3
         80.4805          16688.1
         80.5806          16718.4
         80.6807          16749.2
         80.7808          16780.5
         80.8809          16812.4
          80.981          16844.8
         81.0811          16877.7
         81.1812          16911.1
         81.2813            16945
         81.3814          16979.5
         81.4815          17014.5
         81.5816          17049.9
         81.6817          17085.9
         81.7818          17122.5
         81.8819          17159.5
          81.982            17197
         82.0821            17235
         82.1822          17273.6
         82.2823          17312.6
         82.3824          17352.2
         82.4825          17392.2
         82.5826          17432.7
         82.6827          17473.8
         82.7828          17515.3
         82.8829          17557.4
          82.983          17599.9
         83.0831          17642.9
         83.1832          17686.4
         83.2833          17730.4
         83.3834          17774.8
         83.4835          17819.8
         83.5836          17865.2
         83.6837          17911.2
         83.7838          17957.6
         83.8839          18004.4
          83.984          18051.8
         84.0841          18099.6
         84.1842          18147.9
         84.2843          18196.7
         84.3844          18245.9
         84.4845          18295.6
         84.5846          18345.7
         84.6847          18396.3
         84.7848          18447.4
         84.8849          18498.9
          84.985          18550.9
         85.0851          18603.4
         85.1852          18656.3
         85.2853          18709.6
         85.3854          18763.4
         85.4855          18817.6
         85.5856          18872.3
         85.6857          18927.4
         85.7858            18983
         85.8859          19038.9
          85.986          19095.4
         86.0861          19152.2
         86.1862          19209.5
         86.2863          19267.2
         86.3864          19325.3
         86.4865          19383.9
         86.5866          19442.9
         86.6867          19502.3
         86.7868          19562.1
         86.8869          19622.3
          86.987          19682.9
         87.0871            19744
         87.1872          19805.4
         87.2873          19867.2
         87.3874          19929.5
         87.4875          19992.1
         87.5876          20055.2
         87.6877          20118.6
         87.7878          20182.4
         87.8879          20246.7
          87.988          20311.3
         88.0881          20376.2
         88.1882          20441.6
         88.2883          20507.4
         88.3884          20573.5
         88.4885            20640
         88.5886          20706.8
         88.6887          20774.1
         88.7888          20841.7
         88.8889          20909.6
          88.989          20977.9
         89.0891          21046.6
         89.1892          21115.6
         89.2893            21185
         89.3894          21254.7
         89.4895          21324.8
         89.5896          21395.2
         89.6897            21466
         89.7898          21537.1
         89.8899          21608.5
           89.99          21680.3
         90.0901          21752.4
         90.1902          21824.8
         90.2903          21897.5
         90.3904          21970.6
         90.4905            22044
         90.5906          22117.6
         90.6907          22191.7
         90.7908            22266
         90.8909          22340.6
          90.991          22415.5
         91.0911          22490.7
         91.1912          22566.2
         91.2913          22642.1
         91.3914          22718.2
         91.4915          22794.6
         91.5916          22871.2
         91.6917          22948.2
         91.7918          23025.4
         91.8919            23103
          91.992          23180.7
         92.0921          23258.8
         92.1922          23337.1
         92.2923          23415.7
         92.3924          23494.6
         92.4925          23573.7
         92.5926            23653
         92.6927          23732.6
         92.7928          23812.5
         92.8929          23892.6
          92.993          23972.9
         93.0931          24053.5
         93.1932          24134.3
         93.2933          24215.4
         93.3934          24296.7
         93.4935          24378.2
         93.5936          24459.9
         93.6937          24541.8
         93.7938            24624
         93.8939          24706.4
          93.994            24789
         94.0941          24871.8
         94.1942          24954.8
         94.2943          25037.9
         94.3944          25121.3
         94.4945          25204.9
         94.5946          25288.7
         94.6947          25372.7
         94.7948          25456.8
         94.8949          25541.1
          94.995          25625.6
         95.0951          25710.3
         95.1952          25795.1
         95.2953          25880.1
         95.3954          25965.3
         95.4955          26050.6
         95.5956          26136.1
         95.6957          26221.8
         95.7958          26307.5
         95.8959          26393.5
          95.996          26479.5
         96.0961          26565.8
         96.1962          26652.1
         96.2963          26738.6
         96.3964          26825.2
         96.4965            26912
         96.5966          26998.8
         96.6967          27085.8
         96.7968          27172.9
         96.8969          27260.1
          96.997          27347.4
         97.0971          27434.8
         97.1972          27522.3
         97.2973            27610
         97.3974          27697.7
         97.4975          27785.5
         97.5976          27873.4
         97.6977          27961.4
         97.7978          28049.4
         97.8979          28137.5
          97.998          28225.8
         98.0981            28314
         98.1982          28402.4
         98.2983          28490.8
         98.3984          28579.3
         98.4985          28667.8
         98.5986          28756.4
         98.6987            28845
         98.7988          28933.7
         98.8989          29022.4
          98.999          29111.1
         99.0991          29199.9
         99.1992          29288.7
         99.2993          29377.6
         99.3994          29466.4
         99.4995          29555.3
         99.5996          29644.3
         99.6997          29733.2
         99.7998          29822.1
         99.8999          29911.1
             100            30000
&
@TYPE xy
               0            60000
          0.1001          60133.4
          0.2002          60266.8
          0.3003          60400.2
          0.4004          60533.6
        0.500501          60666.9
        0.600601          60800.1
        0.700701          60933.3
        0.800801          61066.3
        0.900901          61199.3
           1.001          61332.2
          1.1011            61465
          1.2012          61597.6
          1.3013          61730.1
          1.4014          61862.5
          1.5015          61994.6
          1.6016          62126.6
          1.7017          62258.4
          1.8018            62390
          1.9019          62521.4
           2.002          62652.6
          2.1021          62783.5
          2.2022          62914.2
          2.3023          63044.6
          2.4024          63174.8
          2.5025          63304.7
          2.6026          63434.2
          2.7027          63563.5
          2.8028          63692.5
          2.9029          63821.1
           3.003          63949.4
          3.1031          64077.3
          3.2032          64204.9
          3.3033          64332.1
          3.4034          64458.9
          3.5035          64585.3
          3.6036          64711.3
          3.7037          64836.9
          3.8038          64962.1
          3.9039          65086.8
           4.004            65211
          4.1041          65334.8
          4.2042          65458.2
          4.3043            65581
          4.4044          65703.3
          4.5045          65825.2
          4.6046          65946.5
          4.7047          66067.3
          4.8048          66187.5
          4.9049          66307.2
         5.00501          66426.3
         5.10511          66544.9
         5.20521          66662.9
         5.30531          66780.3
         5.40541            66897
         5.50551          67013.2
         5.60561          67128.8
         5.70571          67243.7
         5.80581          67357.9
         5.90591          67471.5
         6.00601          67584.5
         6.10611          67696.8
         6.20621          67808.3
         6.30631          67919.2
         6.40641          68029.4
         6.50651          68138.9
         6.60661          68247.6
         6.70671          68355.7
         6.80681          68462.9
         6.90691          68569.4
         7.00701          68675.2
         7.10711          68780.2
         7.20721          68884.4
         7.30731          68987.8
         7.40741          69090.4
         7.50751          69192.2
         7.60761          69293.2
         7.70771          69393.3
         7.80781          69492.6
         7.90791          69591.1
         8.00801          69688.7
         8.10811          69785.5
         8.20821          69881.4
         8.30831          69976.4
         8.40841          70070.5
         8.50851          70163.7
         8.60861            70256
         8.70871          70347.5
         8.80881          70437.9
         8.90891          70527.5
         9.00901          70616.1
         9.10911          70703.8
         9.20921          70790.5
         9.30931          70876.3
         9.40941          70961.1
         9.50951          71044.9
         9.60961          71127.7
         9.70971          71209.6
         9.80981          71290.4
         9.90991          71370.2
           10.01          71449.1
         10.1101          71526.9
         10.2102          71603.7
         10.3103          71679.4
         10.4104          71754.1
         10.5105          71827.8
         10.6106          71900.4
         10.7107            71972
         10.8108          72042.4
         10.9109          72111.9
          11.011          72180.2
         11.1111          72247.4
         11.2112          72313.6
         11.3113          72378.7
         11.4114          72442.6
         11.5115          72505.5
         11.6116          72567.3
         11.7117          72627.9
         11.8118          72687.4
         11.9119          72745.8
          12.012            72803
         12.1121          72859.1
         12.2122          72914.1
         12.3123          72967.9
         12.4124          73020.5
         12.5125            73072
         12.6126          73122.3
         12.7127          73171.5
         12.8128          73219.5
         12.9129          73266.3
          13.013          73311.9
         13.1131          73356.4
         13.2132          73399.6
         13.3133          73441.7
         13.4134          73482.6
         13.5135          73522.2
         13.6136          73560.7
         13.7137            73598
         13.8138            73634
         13.9139          73668.8
          14.014          73702.5
         14.1141          73734.9
         14.2142            73766
         14.3143            73796
         14.4144          73824.7
         14.5145          73852.2
         14.6146          73878.5
         14.7147          73903.5
         14.8148          73927.3
         14.9149          73949.8
          15.015          73971.1
         15.1151          73991.2
         15.2152            74010
         15.3153          74027.6
         15.4154          74043.9
         15.5155            74059
         15.6156          74072.8
         15.7157          74085.4
         15.8158          74096.7
         15.9159          74106.7
          16.016          74115.6
         16.1161          74123.1
         16.2162          74129.4
         16.3163          74134.4
         16.4164          74138.2
         16.5165          74140.7
         16.6166            74142
         16.7167            74142
         16.8168          74140.7
         16.9169          74138.2
          17.017          74134.4
         17.1171          74129.4
         17.2172          74123.1
         17.3173          74115.6
         17.4174          74106.7
         17.5175          74096.7
         17.6176          74085.4
         17.7177          74072.8
         17.8178            74059
         17.9179          74043.9
          18.018          74027.6
         18.1181            74010
         18.2182          73991.2
         18.3183          73971.1
         18.4184          73949.8
         18.5185          73927.3
         18.6186          73903.5
         18.7187          73878.5
         18.8188          73852.2
         18.9189          73824.7
          19.019            73796
         19.1191            73766
         19.2192          73734.9
         19.3193          73702.5
         19.4194          73668.8
         19.5195            73634
         19.6196            73598
         19.7197          73560.7
         19.8198          73522.2
         19.9199          73482.6
           20.02          73441.7
         20.1201          73399.6
         20.2202          73356.4
         20.3203          73311.9
         20.4204          73266.3
         20.5205          73219.5
         20.6206          73171.5
         20.7207          73122.3
         20.8208            73072
         20.9209          73020.5
          21.021          72967.9
         21.1211          72914.1
         21.2212          72859.1
         21.3213            72803
         21.4214          72745.8
         21.5215          72687.4
         21.6216          72627.9
         21.7217          72567.3
         21.8218          72505.5
         21.9219          72442.6
          22.022          72378.7
         22.1221          72313.6
         22.2222          72247.4
         22.3223          72180.2
         22.4224          72111.9
         22.5225          72042.4
         22.6226            71972
         22.7227          71900.4
         22.8228          71827.8
         22.9229          71754.1
          23.023          71679.4
         23.1231          71603.7
         23.2232          71526.9
         23.3233          71449.1
         23.4234          71370.2
         23.5235          71290.4
         23.6236          71209.6
         23.7237          71127.7
         23.8238          71044.9
         23.9239          70961.1
          24.024          70876.3
         24.1241          70790.5
         24.2242          70703.8
         24.3243          70616.1
         24.4244          70527.5
         24.5245          70437.9
         24.6246          70347.5
         24.7247            70256
         24.8248          70163.7
         24.9249          70070.5
          25.025          69976.4
         25.1251          69881.4
         25.2252          69785.5
         25.3253          69688.7
         25.4254          69591.1
         25.5255          69492.6
         25.6256          69393.3
         25.7257          69293.2
         25.8258          69192.2
         25.9259          69090.4
          26.026          68987.8
         26.1261          68884.4
         26.2262          68780.2
         26.3263          68675.2
         26.4264          68569.4
         26.5265          68462.9
         26.6266          68355.7
         26.7267          68247.6
         26.8268          68138.9
         26.9269          68029.4
          27.027          67919.2
         27.1271          67808.3
         27.2272          67696.8
         27.3273          67584.5
         27.4274          67471.5
         27.5275          67357.9
         27.6276          67243.7
         27.7277          67128.8
         27.8278          67013.2
         27.9279            66897
          28.028          66780.3
         28.1281          66662.9
         28.2282          66544.9
         28.3283          66426.3
         28.4284          66307.2
         28.5285          66187.5
         28.6286          66067.3
         28.7287          65946.5
         28.8288          65825.2
         28.9289          65703.3
          29.029            65581
         29.1291          65458.2
         29.2292          65334.8
         29.3293            65211
         29.4294          65086.8
         29.5295          64962.1
         29.6296          64836.9
         29.7297          64711.3
         29.8298          64585.3
         29.9299          64458.9
           30.03          64332.1
         30.1301          64204.9
         30.2302          64077.3
         30.3303          63949.4
         30.4304          63821.1
         30.5305          63692.5
         30.6306          63563.5
         30.7307          63434.2
         30.8308          63304.7
         30.9309          63174.8
          31.031          63044.6
         31.1311          62914.2
         31.2312          62783.5
         31.3313          62652.6
         31.4314          62521.4
         31.5315            62390
         31.6316          62258.4
         31.7317          62126.6
         31.8318          61994.6
         31.9319          61862.5
          32.032          61730.1
         32.1321          61597.6
         32.2322            61465
         32.3323          61332.2
         32.4324          61199.3
         32.5325          61066.3
         32.6326          60933.3
         32.7327          60800.1
         32.8328          60666.9
         32.9329          60533.6
          33.033          60400.2
         33.1331          60266.8
         33.2332          60133.4
         33.3333            60000
         33.4334          59866.6
         33.5335          59733.2
         33.6336          59599.8
         33.7337          59466.4
         33.8338          59333.1
         33.9339          59199.9
          34.034          59066.7
         34.1341          58933.7
         34.2342          58800.7
         34.3343          58667.8
         34.4344            58535
         34.5345          58402.4
         34.6346          58269.9
         34.7347          58137.5
         34.8348          58005.4
         34.9349          57873.4
          35.035          57741.6
         35.1351            57610
         35.2352          57478.6
         35.3353          57347.4
         35.4354          57216.5
         35.5355          57085.8
         35.6356          56955.4
         35.7357          56825.2
         35.8358          56695.3
         35.9359          56565.8
          36.036          56436.5
         36.1361          56307.5
         36.2362          56178.9
         36.3363          56050.6
         36.4364          55922.7
         36.5365          55795.1
         36.6366          55667.9
         36.7367          55541.1
         36.8368          55414.7
         36.9369          55288.7
          37.037          55163.1
         37.1371          55037.9
         37.2372          54913.2
         37.3373            54789
         37.4374          54665.2
         37.5375          54541.8
         37.6376            54419
         37.7377          54296.7
         37.8378          54174.8
         37.9379          54053.5
          38.038          53932.7
         38.1381          53812.5
         38.2382          53692.8
         38.3383          53573.7
         38.4384          53455.1
         38.5385          53337.1
         38.6386          53219.7
         38.7387            53103
         38.8388          52986.8
         38.9389          52871.2
          39.039          52756.3
         39.1391          52642.1
         39.2392          52528.5
         39.3393          52415.5
         39.4394          52303.2
         39.5395          52191.7
         39.6396          52080.8
         39.7397          51970.6
         39.8398          51861.1
         39.9399          51752.4
           40.04          51644.3
         40.1401          51537.1
         40.2402          51430.6
         40.3403          51324.8
         40.4404          51219.8
         40.5405          51115.6
         40.6406          51012.2
         40.7407          50909.6
         40.8408          50807.8
         40.9409          50706.8
          41.041          50606.7
         41.1411          50507.4
         41.2412          50408.9
         41.3413          50311.3
         41.4414          50214.5
         41.5415          50118.6
         41.6416          50023.6
         41.7417          49929.5
         41.8418          49836.3
         41.9419            49744
          42.042          49652.5
         42.1421          49562.1
         42.2422          49472.5
         42.3423          49383.9
         42.4424          49296.2
         42.5425          49209.5
         42.6426          49123.7
         42.7427          49038.9
         42.8428          48955.1
         42.9429          48872.3
          43.043          48790.4
         43.1431          48709.6
         43.2432          48629.8
         43.3433          48550.9
         43.4434          48473.1
         43.5435          48396.3
         43.6436          48320.6
         43.7437          48245.9
         43.8438          48172.2
         43.9439          48099.6
          44.044            48028
         44.1441          47957.6
         44.2442          47888.1
         44.3443          47819.8
         44.4444          47752.6
         44.5445          47686.4
         44.6446          47621.3
         44.7447          47557.4
         44.8448          47494.5
         44.9449          47432.7
          45.045          47372.1
         45.1451          47312.6
         45.2452          47254.2
         45.3453            47197
         45.4454          47140.9
         45.5455          47085.9
         45.6456          47032.1
         45.7457          46979.5
         45.8458            46928
         45.9459          46877.7
          46.046          46828.5
         46.1461          46780.5
         46.2462          46733.7
         46.3463          46688.1
         46.4464          46643.6
         46.5465          46600.4
         46.6466          46558.3
         46.7467          46517.4
         46.8468          46477.8
         46.9469          46439.3
          47.047            46402
         47.1471            46366
         47.2472          46331.2
         47.3473          46297.5
         47.4474          46265.1
         47.5475            46234
         47.6476            46204
         47.7477          46175.3
         47.8478          46147.8
         47.9479          46121.5
          48.048          46096.5
         48.1481          46072.7
         48.2482          46050.2
         48.3483          46028.9
         48.4484          46008.8
         48.5485            45990
         48.6486          45972.4
         48.7487          45956.1
         48.8488            45941
         48.9489          45927.2
          49.049          45914.6
         49.1491          45903.3
         49.2492          45893.3
         49.3493          45884.4
         49.4494          45876.9
         49.5495          45870.6
         49.6496          45865.6
         49.7497          45861.8
         49.8498          45859.3
         49.9499            45858
         50.0501            45858
         50.1502          45859.3
         50.2503          45861.8
         50.3504          45865.6
         50.4505          45870.6
         50.5506          45876.9
         50.6507          45884.4
         50.7508          45893.3
         50.8509          45903.3
          50.951          45914.6
         51.0511          45927.2
         51.1512            45941
         51.2513          45956.1
         51.3514          45972.4
         51.4515            45990
         51.5516          46008.8
         51.6517          46028.9
         51.7518          46050.2
         51.8519          46072.7
          51.952          46096.5
         52.0521          46121.5
         52.1522          46147.8
         52.2523          46175.3
         52.3524            46204
         52.4525            46234
         52.5526          46265.1
         52.6527          46297.5
         52.7528          46331.2
         52.8529            46366
          52.953            46402
         53.0531          46439.3
         53.1532          46477.8
         53.2533          46517.4
         53.3534          46558.3
         53.4535          46600.4
         53.5536          46643.6
         53.6537          46688.1
         53.7538          46733.7
         53.8539          46780.5
          53.954          46828.5
         54.0541          46877.7
         54.1542            46928
         54.2543          46979.5
         54.3544          47032.1
         54.4545          47085.9
         54.5546          47140.9
         54.6547            47197
         54.7548          47254.2
         54.8549          47312.6
          54.955          47372.1
         55.0551          47432.7
         55.1552          47494.5
         55.2553          47557.4
         55.3554          47621.3
         55.4555          47686.4
         55.5556          47752.6
         55.6557          47819.8
         55.7558          47888.1
         55.8559          47957.6
          55.956            48028
         56.0561          48099.6
         56.1562          48172.2
         56.2563          48245.9
         56.3564          48320.6
         56.4565          48396.3
         56.5566          48473.1
         56.6567          48550.9
         56.7568          48629.8
         56.8569          48709.6
          56.957          48790.4
         57.0571          48872.3
         57.1572          48955.1
         57.2573          49038.9
         57.3574          49123.7
         57.4575          49209.5
         57.5576          49296.2
         57.6577          49383.9
         57.7578          49472.5
         57.8579          49562.1
          57.958          49652.5
         58.0581            49744
         58.1582          49836.3
         58.2583          49929.5
         58.3584          50023.6
         58.4585          50118.6
         58.5586          50214.5
         58.6587          50311.3
         58.7588          50408.9
         58.8589          50507.4
          58.959          50606.7
         59.0591          50706.8
         59.1592          50807.8
         59.2593          50909.6
         59.3594          51012.2
         59.4595          51115.6
         59.5596          51219.8
         59.6597          51324.8
         59.7598          51430.6
         59.8599          51537.1
           59.96          51644.3
         60.0601          51752.4
         60.1602          51861.1
         60.2603          51970.6
         60.3604          52080.8
         60.4605          52191.7
         60.5606          52303.2
         60.6607          52415.5
         60.7608          52528.5
         60.8609          52642.1
          60.961          52756.3
         61.0611          52871.2
         61.1612          52986.8
         61.2613            53103
         61.3614          53219.7
         61.4615          53337.1
         61.5616          53455.1
         61.6617          53573.7
         61.7618          53692.8
         61.8619          53812.5
          61.962          53932.7
         62.0621          54053.5
         62.1622          54174.8
         62.2623          54296.7
         62.3624            54419
         62.4625          54541.8
         62.5626          54665.2
         62.6627            54789
         62.7628          54913.2
         62.8629          55037.9
          62.963          55163.1
         63.0631          55288.7
         63.1632          55414.7
         63.2633          55541.1
         63.3634          55667.9
         63.4635          55795.1
         63.5636          55922.7
         63.6637          56050.6
         63.7638          56178.9
         63.8639          56307.5
          63.964          56436.5
         64.0641          56565.8
         64.1642          56695.3
         64.2643          56825.2
         64.3644          56955.4
         64.4645          57085.8
         64.5646          57216.5
         64.6647          57347.4
         64.7648          57478.6
         64.8649            57610
          64.965          57741.6
         65.0651          57873.4
         65.1652          58005.4
         65.2653          58137.5
         65.3654          58269.9
         65.4655          58402.4
         65.5656            58535
         65.6657          58667.8
         65.7658          58800.7
         65.8659          58933.7
          65.966          59066.7
         66.0661          59199.9
         66.1662          59333.1
         66.2663          59466.4
         66.3664          59599.8
         66.4665          59733.2
         66.5666          59866.6
         66.6667            60000
         66.7668          60133.4
         66.8669          60266.8
          66.967          60400.2
         67.0671          60533.6
         67.1672          60666.9
         67.2673          60800.1
         67.3674          60933.3
         67.4675          61066.3
         67.5676          61199.3
         67.6677          61332.2
         67.7678            61465
         67.8679          61597.6
          67.968          61730.1
         68.0681          61862.5
         68.1682          61994.6
         68.2683          62126.6
         68.3684          62258.4
         68.4685            62390
         68.5686          62521.4
         68.6687          62652.6
         68.7688          62783.5
         68.8689          62914.2
          68.969          63044.6
         69.0691          63174.8
         69.1692          63304.7
         69.2693          63434.2
         69.3694          63563.5
         69.4695          63692.5
         69.5696          63821.1
         69.6697          63949.4
         69.7698          64077.3
         69.8699          64204.9
           69.97          64332.1
         70.0701          64458.9
         70.1702          64585.3
         70.2703          64711.3
         70.3704          64836.9
         70.4705          64962.1
         70.5706          65086.8
         70.6707            65211
         70.7708          65334.8
         70.8709          65458.2
          70.971            65581
         71.0711          65703.3
         71.1712          65825.2
         71.2713          65946.5
         71.3714          66067.3
         71.4715          66187.5
         71.5716          66307.2
         71.6717          66426.3
         71.7718          66544.9
         71.8719          66662.9
          71.972          66780.3
         72.0721            66897
         72.1722          67013.2
         72.2723          67128.8
         72.3724          67243.7
         72.4725          67357.9
         72.5726          67471.5
         72.6727          67584.5
         72.7728          67696.8
         72.8729          67808.3
          72.973          67919.2
         73.0731          68029.4
         73.1732          68138.9
         73.2733          68247.6
         73.3734          68355.7
         73.4735          68462.9
         73.5736          68569.4
         73.6737          68675.2
         73.7738          68780.2
         73.8739          68884.4
          73.974          68987.8
         74.0741          69090.4
         74.1742          69192.2
         74.2743          69293.2
         74.3744          69393.3
         74.4745          69492.6
         74.5746          69591.1
         74.6747          69688.7
         74.7748          69785.5
         74.8749          69881.4
          74.975          69976.4
         75.0751          70070.5
         75.1752          70163.7
         75.2753            70256
         75.3754          70347.5
         75.4755          70437.9
         75.5756          70527.5
         75.6757          70616.1
         75.7758          70703.8
         75.8759          70790.5
          75.976          70876.3
         76.0761          70961.1
         76.1762          71044.9
         76.2763          71127.7
         76.3764          71209.6
         76.4765          71290.4
         76.5766          71370.2
         76.6767          71449.1
         76.7768          71526.9
         76.8769          71603.7
          76.977          71679.4
         77.0771          71754.1
         77.1772          71827.8
         77.2773          71900.4
         77.3774            71972
         77.4775          72042.4
         77.5776          72111.9
         77.6777          72180.2
         77.7778          72247.4
         77.8779          72313.6
          77.978          72378.7
         78.0781          72442.6
         78.1782          72505.5
         78.2783          72567.3
         78.3784          72627.9
         78.4785          72687.4
         78.5786          72745.8
         78.6787            72803
         78.7788          72859.1
         78.8789          72914.1
          78.979          72967.9
         79.0791          73020.5
         79.1792            73072
         79.2793          73122.3
         79.3794          73171.5
         79.4795          73219.5
         79.5796          73266.3
         79.6797          73311.9
         79.7798          73356.4
         79.8799          73399.6
           79.98          73441.7
         80.0801          73482.6
         80.1802          73522.2
         80.2803          73560.7
         80.3804            73598
         80.4805            73634
         80.5806          73668.8
         80.6807          73702.5
         80.7808          73734.9
         80.8809            73766
          80.981            73796
         81.0811          73824.7
         81.1812          73852.2
         81.2813          73878.5
         81.3814          73903.5
         81.4815          73927.3
         81.5816          73949.8
         81.6817          73971.1
         81.7818          73991.2
         81.8819            74010
          81.982          74027.6
         82.0821          74043.9
         82.1822            74059
         82.2823          74072.8
         82.3824          74085.4
         82.4825          74096.7
         82.5826          74106.7
         82.6827          74115.6
         82.7828          74123.1
         82.8829          74129.4
          82.983          74134.4
         83.0831          74138.2
         83.1832          74140.7
         83.2833            74142
         83.3834            74142
         83.4835          74140.7
         83.5836          74138.2
         83.6837          74134.4
         83.7838          74129.4
         83.8839          74123.1
          83.984          74115.6
         84.0841          74106.7
         84.1842          74096.7
         84.2843          74085.4
         84.3844          74072.8
         84.4845            74059
         84.5846          74043.9
         84.6847          74027.6
         84.7848            74010
         84.8849          73991.2
          84.985          73971.1
         85.0851          73949.8
         85.1852          73927.3
         85.2853          73903.5
         85.3854          73878.5
         85.4855          73852.2
         85.5856          73824.7
         85.6857            73796
         85.7858            73766
         85.8859          73734.9
          85.986          73702.5
         86.0861          73668.8
         86.1862            73634
         86.2863            73598
         86.3864          73560.7
         86.4865          73522.2
         86.5866          73482.6
         86.6867          73441.7
         86.7868          73399.6
         86.8869          73356.4
          86.987          73311.9
         87.0871          73266.3
         87.1872          73219.5
         87.2873          73171.5
         87.3874          73122.3
         87.4875            73072
         87.5876          73020.5
         87.6877          72967.9
         87.7878          72914.1
         87.8879          72859.1
          87.988            72803
         88.0881          72745.8
         88.1882          72687.4
         88.2883          72627.9
         88.3884          72567.3
         88.4885          72505.5
         88.5886          72442.6
         88.6887          72378.7
         88.7888          72313.6
         88.8889          72247.4
          88.989          72180.2
         89.0891          72111.9
         89.1892          72042.4
         89.2893            71972
         89.3894          71900.4
         89.4895          71827.8
         89.5896          71754.1
         89.6897          71679.4
         89.7898          71603.7
         89.8899          71526.9
           89.99          71449.1
         90.0901          71370.2
         90.1902          71290.4
         90.2903          71209.6
         90.3904          71127.7
         90.4905          71044.9
         90.5906          70961.1
         90.6907          70876.3
         90.7908          70790.5
         90.8909          70703.8
          90.991          70616.1
         91.0911          70527.5
         91.1912          70437.9
         91.2913          70347.5
         91.3914            70256
         91.4915          70163.7
         91.5916          70070.5
         91.6917          69976.4
         91.7918          69881.4
         91.8919          69785.5
          91.992          69688.7
         92.0921          69591.1
         92.1922          69492.6
         92.2923          69393.3
         92.3924          69293.2
         92.4925          69192.2
         92.5926          69090.4
         92.6927          68987.8
         92.7928          68884.4
         92.8929          68780.2
          92.993          68675.2
         93.0931          68569.4
         93.1932          68462.9
         93.2933          68355.7
         93.3934          68247.6
         93.4935          68138.9
         93.5936          68029.4
         93.6937          67919.2
         93.7938          67808.3
         93.8939          67696.8
          93.994          67584.5
         94.0941          67471.5
         94.1942          67357.9
         94.2943          67243.7
         94.3944          67128.8
         94.4945          67013.2
         94.5946            66897
         94.6947          66780.3
         94.7948          66662.9
         94.8949          66544.9
          94.995          66426.3
         95.0951          66307.2
         95.1952          66187.5
         95.2953          66067.3
         95.3954          65946.5
         95.4955          65825.2
         95.5956          65703.3
         95.6957            65581
         95.7958          65458.2
         95.8959          65334.8
          95.996            65211
         96.0961          65086.8
         96.1962          64962.1
         96.2963          64836.9
         96.3964          64711.3
         96.4965          64585.3
         96.5966          64458.9
         96.6967          64332.1
         96.7968          64204.9
         96.8969          64077.3
          96.997          63949.4
         97.0971          63821.1
         97.1972          63692.5
         97.2973          63563.5
         97.3974          63434.2
         97.4975          63304.7
         97.5976          63174.8
         97.6977          63044.6
         97.7978          62914.2
         97.8979          62783.5
          97.998          62652.6
         98.0981          62521.4
         98.1982            62390
         98.2983          62258.4
         98.3984          62126.6
         98.4985          61994.6
         98.5986          61862.5
         98.6987          61730.1
         98.7988          61597.6
         98.8989            61465
          98.999          61332.2
         99.0991          61199.3
         99.1992          61066.3
         99.2993          60933.3
         99.3994          60800.1
         99.4995          60666.9
         99.5996          60533.6
         99.6997          60400.2
         99.7998          60266.8
         99.8999          60133.4
             100            60000
&
